File: sample_4.1_postann_550_PLD/HZO_XRD.dat
Baseline_X Subtracted_Data
27 0
27.06 23.3416
27.12 17.6832
27.18 -14.9752
27.24 4.3664
27.3 25.708
27.36 36.0496
27.42 17.3912
27.48 32.7328
27.54 38.0744
27.6 47.416
27.66 65.7576
27.72 61.0992
27.78 94.4408
27.84 79.7824
27.9 95.124
27.96 161.466
28.02 137.807
28.06 123.035
28.12 172.377
28.18 192.718
28.24 196.06
28.3 196.401
28.36 254.743
28.42 241.085
28.48 232.426
28.54 232.768
28.6 230.109
28.66 214.451
28.72 239.793
28.78 215.134
28.84 216.476
28.9 127.817
28.96 160.159
29.02 173.501
29.08 184.842
29.14 181.184
29.2 154.525
29.26 178.867
29.32 220.209
29.38 210.55
29.44 232.892
29.5 247.233
29.56 254.575
29.62 269.917
29.68 372.258
29.74 420.6
29.8 449.941
29.86 565.283
29.92 675.625
29.98 765.966
30.04 909.808
30.08 1021.54
30.14 1237.88
30.2 1362.22
30.26 1541.56
30.32 1668.9
30.38 1890.24
30.44 1971.59
30.5 1965.93
30.56 1971.27
30.62 1976.61
30.68 1817.95
30.74 1813.29
30.8 1608.63
30.86 1501.98
30.92 1369.82
30.98 1245.16
31.04 1083
31.1 998.343
31.16 897.684
31.22 820.026
31.28 796.368
31.34 701.709
31.4 667.051
31.46 586.392
31.52 580.734
31.58 554.076
31.64 486.417
31.7 472.759
31.76 392.1
31.82 400.442
31.88 379.784
31.94 271.125
32 246.967
32.06 234.808
32.12 221.15
32.18 174.492
32.24 112.833
32.3 115.175
32.36 92.5164
32.42 71.858
32.48 80.1996
32.54 47.5412
32.6 69.8828
32.66 83.2244
32.72 -17.434
32.78 10.9076
32.84 48.2492
32.9 20.0908
32.96 22.4324
33.02 -4.83988
33.08 -11.8399
33.14 7.16012
33.2 -0.839879
33.26 -5.83988
33.32 -28.8399
33.38 11.1601
33.44 6.16012
33.5 -15.8399
33.56 15.1601
33.62 -8.32433
33.68 13.4329
33.74 -3.80986
33.8 12.9474
33.86 5.70461
33.92 22.4618
33.98 47.2191
34.04 31.9763
34.1 4.73355
34.16 39.4908
34.22 50.248
34.28 74.0053
34.34 134.762
34.4 109.52
34.46 147.277
34.52 163.034
34.58 131.791
34.64 173.549
34.7 188.306
34.76 193.063
34.82 228.82
34.88 240.578
34.94 225.335
35 223.092
35.06 314.849
35.12 309.607
35.18 317.364
35.24 300.121
35.3 341.878
35.36 322.636
35.42 319.393
35.48 299.15
35.54 329.907
35.6 276.664
35.66 247.422
35.72 244.179
35.78 224.936
35.84 135.693
35.9 158.951
35.96 115.208
36.02 128.965
36.08 99.7223
36.14 93.4796
36.2 98.2368
36.26 131.994
36.32 124.751
36.38 147.509
36.44 262.266
36.5 243.023
36.56 293.78
36.62 394.537
36.68 432.295
36.74 556.052
36.8 603.809
36.86 606.566
36.92 638.324
36.98 655.081
37.04 643.838
37.1 644.595
37.16 546.353
37.22 465.11
37.28 375.867
37.34 323.624
37.4 206.382
37.46 171.139
37.52 138.896
37.58 104.653
37.64 37.4105
37.7 42.1677
37.76 26.925
37.82 -11.3178
37.88 -11.5606
37.94 -0.280751
38 -15.7656
38.06 -3.25054
38.12 -30.7354
38.18 -3.22033
38.24 -8.70522
38.3 3.80988
38.36 -28.675
38.42 -11.1599
38.48 -20.6448
38.54 -17.181
38.6 -34.5921
38.66 -10.0033
38.72 -21.4145
38.78 4.17433
38.84 6.76315
38.9 -27.648
38.96 -4.05921
39 0